MIRICO/SHELL project - Processed LDS file generated on
Mon May 08 21:00:06 2017
Time stamp for record start
05/08/2017  16:28:17.0000
Nb of points in the record
         614
Beam position index
       5.0000000
Beam angle (degrees)
       8.5500000
Open Path length (m)
       41.505000
****************** Temporal data record ************************
Elapsed time   Temp   Press   Humidity   Wind X   Wind Y   Wind Z   Speed of sound   CH4 vmr   CH4 vmr error  
Seconds   Kelvin   Pa   ppmv   m/s   m/s   m/s   m/s   ppmv   ppmv  
      0.00000000       286.85000       101631.64       8509.2654      -1.7937500       2.1940000     -0.60550000       338.98100      0.33421326    0.0029081856
       3.0000240       286.85000       101631.64       8493.5771      -1.7832500      0.35525000     -0.14075000       339.02500      -1.0933731    -0.013565599
       6.0000077       286.85000       101650.64       8491.9761      -1.1127500     0.038000000    -0.042000000       339.19700       3.6798636     0.046736703
       10.000026       286.85000       101631.64       8477.8892      -1.2725000      0.61225000      0.56175010       339.24800      0.13573625    0.0014609429
       13.000010       286.85000       101631.64       8462.2018      -2.4962500      0.92050000     -0.20300000       339.15400       3.1377041     0.028674266
       15.999994       287.15000       101612.54       8615.8666      -2.4212500       1.4222500     -0.59800000       338.66200       1.2837183     0.013221724
       20.000012       286.95000       101650.64       8500.4934      -2.9917500       1.1365000      0.23875000       338.99800       3.4314083     0.034364935
       22.999996       287.15000       101612.54       8599.8630      -2.6675000       2.1502500    -0.056000000       339.01200       2.8434424     0.033130962
       26.000020       286.85000       101650.64       8413.5565      -1.5160000       1.6412500      0.95425000       339.06500       1.9347177     0.027027584
       29.999998       286.85000       101631.64       8415.1425      -2.0312500       1.8512500     -0.52600000       338.82700     -0.31487272   -0.0031382321
       33.000022       286.85000       101631.64       8399.4571     -0.81000010       1.9277500    -0.031500000       339.12700       1.1235843     0.011688011
       36.000006       286.85000       101650.64       8397.8740      -2.5370000       2.0410000     -0.24000000       338.95100      -2.0981415    -0.021400733
       40.000024       286.85000       101631.64       8415.1425      -2.3165000       1.7067500      0.25300000       338.81400     -0.64750670   -0.0061637296
       43.000008       286.85000       101612.54       8432.4264      -2.7097500       1.7382500     -0.28225000       338.76000     -0.41632904   -0.0048165994
       45.999992       286.85000       101650.64       8429.2395      -2.7810000       1.1160000    -0.046500000       338.58600      0.36710022    0.0036630658
       50.000010       286.85000       101631.64       8415.1425      -1.2692500       1.8342500     -0.15425000       338.97500      -1.1894324    -0.012385166
       52.999994       287.05000       101631.64       8526.2117      -3.6600000       2.2712500      0.23800000       338.68100       1.8008722     0.018835911
       56.000018       286.85000       101631.64       8430.8285      -2.7175000       1.5352500     -0.27850000       338.85400      0.72948291    0.0083556422
       59.999996       287.25000       101650.64       8669.1588      -2.0957500       1.1120000      0.62125000       338.94100     -0.22474619   -0.0021752378
       63.000020       286.75000       101650.64       8374.0953      -2.6097500       1.3705000    -0.014250000       338.96000       1.7054216     0.014233581
       66.000004       286.65000       101631.64       8320.8399      -4.1537500       1.4682500     -0.56125000       338.64700      0.40681634    0.0040883024
       70.000023       286.85000       101650.64       8429.2395      -2.7485000      0.79850010     0.022000000       338.99300       2.7246890     0.026162088
       73.000006       286.85000       101650.64       8444.9229      -1.5785000       1.6172500    -0.026250000       339.00500       1.1096266     0.012115800
       76.000030       286.85000       101612.54       8432.4264     -0.82250010       1.6207500      0.50825000       338.74000     -0.77237643   -0.0073205958
       80.000009       286.85000       101631.64       8430.8285      -2.3975000       1.0860000     -0.24825000       339.03700       1.7495925     0.018083093
       82.999992       286.85000       101650.64       8444.9229      -3.5547500       1.0062500      0.65325000       338.65900       1.1666881     0.011152301
       86.000016       286.85000       101631.64       8462.2018      -2.0910000       1.6902500     -0.31350000       338.97900       4.1907228     0.041995159
       89.999995       287.15000       101650.64       8612.6097      -1.9045000     -0.35075000     0.053250000       338.99200       1.7832098     0.018638960
       93.000019       286.75000       101631.64       8391.2568      -2.0662500       1.7150000      0.36100000       339.08400       1.7721696     0.025427463
       96.000002       286.75000       101631.64       8391.2568      -4.4790000       1.8722500     -0.64500000       338.56900       2.2814257     0.021501234
       100.00002       286.85000       101612.54       8448.1158      -2.7430000       1.3717500      0.24825000       338.70200       2.1292431     0.022906812
       103.00000       286.75000       101650.64       8405.2558      -3.1130000       1.7087500     0.078500000       338.85700      0.42631107    0.0038495351
       106.00003       286.75000       101650.64       8389.6753      -4.0155000      0.95775000     -0.14225000       338.63700       1.3493112     0.013232501
       110.00001       286.85000       101631.64       8462.2018      -2.3410000       1.6522500      0.37825000       338.91400     0.090661398   0.00093565280
       113.00003       286.75000       101650.64       8405.2558      -2.7337500       1.7270000      0.30600000       338.80700      0.27126982    0.0027149806
       116.00001       286.85000       101631.64       8446.5149      -3.7625000       1.1562500      0.50550000       338.88700       1.5540543     0.021052625
       119.99999       286.75000       101650.64       8405.2558      -2.6180000       1.8722500     -0.30250000       338.84300      0.42295457    0.0062626979
       123.00002       286.85000       101650.64       8444.9229      -4.0185000      0.57500000    -0.071750000       338.76700       1.3345760     0.014671275
       126.00000       286.85000       101650.64       8444.9229      -3.0915000       1.7335000     -0.15075000       339.10700       1.0238383     0.011858563
       130.00002       286.75000       101631.64       8375.6738      -3.3372500       2.2315000     -0.50800000       338.54700     -0.89039128   -0.0095632018
       133.00000       286.85000       101631.64       8430.8285      -1.1450000       1.3030000      0.43475000       339.02600       2.6102473     0.031624923
       136.00003       287.25000       101650.64       8669.1588      -1.5152500       1.9340000     -0.61650000       339.09400       3.5820985     0.041818025
       139.00001       286.75000       101650.64       8420.8367      -2.6430000      0.71125000     -0.30775000       338.93500     -0.73270432   -0.0079498909
       143.00003       287.15000       101631.64       8662.2383      -2.7237500       1.3387500      0.35850000       338.79300       2.2890007     0.027018522
       146.00001       287.05000       101650.64       8588.1743      -1.9807500      0.50300000      0.34175000       338.91000       2.0672254     0.019755006
       149.00000       286.75000       101631.64       8422.4241      -2.5862500       1.2865000    -0.023750000       338.96200       4.1113565     0.059331505
       153.00002       286.75000       101650.64       8436.4181      -2.5335000      0.14800000     0.017000000       339.03500       1.6476988     0.024177767
       156.00000       286.85000       101631.64       8477.8892      -1.7730000     -0.18550000      0.20425000       339.09200       5.8072727     0.082441109
       159.00002       286.85000       101650.64       8476.2912      -2.6077500     -0.31775000      0.10700000       338.89400       2.2991721     0.037496059
       163.00000       286.85000       101631.64       8462.2018      -3.5087500       1.5570000     -0.28125000       338.79000       2.9790723     0.031326394
       166.00002       287.25000       101631.64       8654.6869      -3.3112500       1.9895000      0.26750000       338.97700       2.2997369     0.026837688
       169.00001       286.75000       101650.64       8327.3582      -3.4927500      0.94400010    -0.026500000       338.86000       3.3184981     0.031532615
       173.00003       286.85000       101650.64       8382.1921      -3.0690000      0.80475000      0.77450000       338.77400       4.7469192     0.060586201
       176.00001       286.75000       101650.64       8327.3582      -3.4130000      0.29700000      0.29000000       338.81000      0.15865660    0.0019350228
       178.99999       286.85000       101650.64       8397.8740      -3.6965000     -0.74775000    -0.039500000       338.85100       4.2715364     0.065473523
       183.00001       286.75000       101650.64       8358.5158      -3.8442500       1.3832500     -0.73600010       338.87800      0.41326177    0.0050138205
       186.00000       286.75000       101650.64       8358.5158      -3.1812500       2.0400000     -0.31825000       338.80400       1.7729673     0.018829391
       189.00002       286.75000       101650.64       8358.5158      -3.2100000       1.8742500     -0.41325000       338.67400       3.3228227     0.034748409
       193.00000       286.75000       101650.64       8342.9368      -1.7817500    -0.062000000    0.0045000000       338.91900     0.088044759    0.0012404526
       196.00002       286.75000       101631.64       8313.3469      -3.2997500      0.33350000     -0.22725000       338.64300       5.6901697     0.059696293
       199.00001       286.75000       101631.64       8297.7663      -2.6100000     -0.72950010      0.24475000       338.96900       2.6329000     0.032677848
       203.00003       286.75000       101631.64       8297.7663      -2.5830000      -1.1515000      0.38600000       338.71900      0.20703086    0.0021483274
       206.00001       286.75000       101650.64       8311.7802      -1.8582500      0.69650000     0.058750000       338.72700      0.85495686    0.0074615768
       208.99999       286.75000       101631.64       8328.9279      -2.4195000     0.042000000     -0.21725000       338.88700       3.1116393     0.031130443
       213.00001       286.65000       101650.64       8288.3189      -3.1932500     -0.52850000     0.051000000       338.75600       1.1540987     0.014287124
       216.00000       286.65000       101631.64       8320.8399      -2.8232500     -0.35125000    0.0022500000       338.86600      0.78373212     0.012155649
       219.00002       286.65000       101631.64       8367.2816      -2.2880000      -1.1112500      0.54125010       338.92500       2.2512456     0.034496537
       223.00000       286.65000       101631.64       8367.2816      -2.4795000     -0.77975000      0.65675000       338.73800       2.6810575     0.028359004
       226.00002       286.75000       101631.64       8438.0085      -2.7230000       1.3145000      0.19900000       338.88600       1.5313688     0.017230198
       229.00001       286.55000       101631.64       8343.2189      -2.7940000       1.3610000     -0.41525000       338.86500       2.5068191     0.022912578
       233.00002       286.55000       101631.64       8343.2189      -2.7967500       1.1120000      0.70050000       338.80100       3.2725972     0.035260321
       236.00001       286.75000       101650.64       8467.5824      -2.7880000       1.0687500      0.37575000       339.02000     -0.62044418   -0.0051195812
       239.00003       286.65000       101650.64       8443.1022      -1.7342500      0.40675000    -0.097500000       338.85100       1.5810483     0.017608099
       243.00001       286.65000       101631.64       8429.2105      -1.7247500       1.1087500    -0.067750010       339.00100    0.0038265926  3.2742643e-005
       245.99999       286.65000       101631.64       8444.6939      -1.0575000       1.2025000    -0.089500000       339.00200       2.8852028     0.036910661
       249.00002       286.55000       101650.64       8387.7797     -0.93650010       1.7000000    -0.088250000       338.99500       2.0063912     0.023437452
       253.00000       286.75000       101650.64       8529.9168      -1.7915000      0.92975000     -0.26000000       339.10700       1.1817456     0.017453306
       256.00002       286.65000       101650.64       8474.0646      -2.0605000      0.39325000     -0.21525000       339.15800       2.1338158     0.026829655
       259.00000       286.65000       101631.64       8444.6939      -1.7940000     -0.83775000      0.34225000       339.16500       2.9999917     0.037160406
       263.00002       286.65000       101631.64       8444.6939      -2.9072500      0.40925000      0.15200000       338.76200       1.9428152     0.022571225
       266.00001       286.65000       101650.64       8427.6218      -2.9565000      0.35350000      0.14125000       338.77900     -0.26076741   -0.0025102260
       269.00003       286.75000       101650.64       8452.0000      -3.9195000       1.1762500     -0.42525000       338.74900       1.5436952     0.014153933
       272.00001       286.65000       101631.64       8398.2451      -3.8475000       2.0495000    -0.093750010       338.70400      0.69068023    0.0065046400
       275.99999       286.75000       101631.64       8453.5934      -3.4010000       1.9562500     -0.16475000       338.89300     -0.88998292   -0.0083220113
       279.00002       286.65000       101650.64       8443.1022      -3.4085000      0.73425000     -0.60325000       338.72200     0.025131147   0.00035546992
       282.00000       286.75000       101650.64       8529.9168      -2.9437500      0.71950000     -0.24475000       338.77100       2.6578942     0.036867820
       286.00002       286.65000       101650.64       8489.5465      -1.5525000       1.0160000      0.15675000       338.88000      0.87093865     0.010288162
       289.00000       286.55000       101650.64       8449.2972      -2.7352500       1.0915000     -0.25450000       338.85000       3.3880266     0.055997399
       292.00003       286.65000       101650.64       8520.5117      -1.4487500       1.5655000      0.28625000       339.09700      0.93764362     0.011466450
       296.00000       286.55000       101650.64       8449.2972      -3.8912500       1.0825000     -0.67150000       338.77500       2.0621485     0.022701450
       299.00003       286.55000       101650.64       8464.6777      -3.2610000      0.58400010     -0.44600000       338.89800       1.0578964     0.010573197
       302.00001       286.55000       101631.64       8450.8900      -1.9772500       1.4415000      0.16000000       339.04000       1.9928269     0.022152269
       306.00003       286.55000       101631.64       8420.1245      -4.5610000      0.91200010     -0.34350000       338.57500       1.4462578     0.015331161
       309.00001       286.65000       101650.64       8474.0646      -4.3905000      0.83650000     -0.39000000       338.48600      0.49823792    0.0059128000
       312.00000       286.55000       101650.64       8403.1584      -2.9325000      0.73075000      0.22200000       338.70700      0.93845930     0.010131890
       316.00002       286.65000       101650.64       8474.0646      -2.2107500       1.4370000    -0.023750000       338.88100       1.1810305     0.014151841
       319.00000       286.55000       101671.64       8432.1605      -2.1252500    -0.046250000     -0.11775000       338.81700     -0.35862426   -0.0036220482
       322.00002       286.65000       101650.64       8489.5465      -4.1537500     -0.69875000      0.22925000       338.71200       2.6019302     0.029819108
       326.00000       286.65000       101631.64       8475.6621      -3.3312500       1.6382500     -0.53850000       338.66600       2.8354462     0.036580311
       329.00003       286.65000       101650.64       8443.1022      -1.7387500       3.1172500     0.074250010       338.75600       1.3832701     0.017861620
       332.00001       286.65000       101650.64       8427.6218      -2.8565000      0.42875000      0.17000000       338.85500       2.5253026     0.033401243
       336.00003       286.55000       101650.64       8341.6465      -4.2680000     -0.76550000    -0.052000000       338.58100       1.3701645     0.016049428
       339.00001       286.65000       101631.64       8398.2451      -3.9040000      0.92975000     -0.10350000       338.72000       5.2569710     0.062731716
       342.00000       286.65000       101650.64       8396.6623      -2.8332500       1.7350000     -0.33550000       338.86800       3.6834507     0.041537241
       346.00001       286.55000       101671.64       8339.9094      -2.1055000      0.37450000      0.11625000       338.88800       1.8198641     0.024746036
       349.00000       287.05000       101650.64       8588.1743      -2.1590000      0.76325010      0.41000000       338.89500       2.0105941     0.026668854
       352.00002       286.55000       101650.64       8310.8934      -2.8090000       1.4310000      0.33300000       338.82700       2.4612064     0.037044805
       356.00000       286.55000       101650.64       8326.2697      -2.8892500       1.0600000     -0.25850000       338.81800       2.5579723     0.036330247
       359.00002       286.55000       101650.64       8310.8934      -3.2570000       1.0385000     -0.18050000       338.72900     -0.80205834   -0.0093360088
       362.00001       286.55000       101650.64       8326.2697      -2.6947500      0.37875000     0.021500000       338.63000       1.9879505     0.019003327
       366.00003       286.65000       101650.64       8365.7047      -3.7967500       1.5162500     -0.34825000       338.55000     0.050859841   0.00050165623
       369.00001       286.55000       101671.64       8293.7901      -2.7925000       1.9940000     -0.43200000       338.79700      0.34718693    0.0031121489
       371.99999       286.85000       101671.64       8458.8447      -2.2345000       2.8940000       1.4840000       338.77500       4.1713829     0.051970178
       376.00001       286.55000       101631.64       8297.0812      -3.7925000       1.2232500     -0.65750000       338.60800      0.35482385    0.0040646082
       379.00000       286.55000       101650.64       8326.2697      -3.6595000       1.0880000     0.067500000       338.83600       1.1360892     0.011742773
       382.00002       286.55000       101650.64       8326.2697      -4.6942500       1.4527500      -1.0017500       338.54300       1.1963422     0.015054838
       386.00000       286.55000       101671.64       8309.1627      -2.8862500      0.27650000      0.27975000       338.75300       1.5501308     0.016617775
       389.00002       286.55000       101671.64       8309.1627      -2.2937500       1.4617500      0.33325000       338.76400       2.3739963     0.025915950
       392.00001       286.55000       101671.64       8309.1627      -2.5937500       2.0300000    -0.076750000       338.96300       1.5226684     0.019425392
       396.00002       286.55000       101650.64       8326.2697      -3.1100000       2.8517500    -0.038750000       338.93900      0.29967043    0.0035879717
       399.00001       286.55000       101650.64       8326.2697      -2.9742500       1.7347500     -0.45550000       338.67100       1.8593780     0.019501594
       401.99999       286.55000       101631.64       8327.8392      -2.3292500       2.6770000     -0.23625000       338.70400     -0.44738684   -0.0073927636
       405.00002       286.55000       101631.64       8327.8392      -1.9345000      0.83075000   -0.0010000000       339.00900     -0.16821549   -0.0017004170
       408.99999       286.55000       101650.64       8341.6465      -3.4712500       1.3487500     -0.25400000       338.74600       2.2336679     0.025628998
       412.00002       286.55000       101631.64       8343.2189      -2.7522500      0.97250000      0.68475000       338.70700       2.2642540     0.026093806
       415.00000       286.55000       101631.64       8358.5991      -2.9397500      0.79050000      0.47425000       338.89100      0.90418626     0.010664077
       419.00002       286.55000       101631.64       8373.9797      -2.5240000      0.63775000     -0.34825000       338.71700       2.2513854     0.032091949
       422.00000       286.55000       101631.64       8373.9797      -2.8432500      0.53675000     0.014250000       338.79700      -1.5217761    -0.026020036
       425.00003       286.55000       101631.64       8373.9797      -3.1655000       1.1350000     -0.30000000       338.72600       1.1644500     0.011388771
       429.00001       286.45000       101631.64       8334.3501      -2.7347500      0.79875000    -0.056750000       338.79900     -0.85126917    -0.011504592
       432.00003       286.55000       101612.54       8406.3354      -2.5300000      0.94350000     0.024750000       338.74800       3.5691579     0.039377099
       435.00001       286.55000       101650.64       8433.9171      -3.5342500       1.4412500    -0.081500000       338.75400      0.54627847    0.0098643617
       438.99999       286.45000       101631.64       8380.1911      -2.6255000     -0.35550000      0.25750000       338.79900      0.63670589    0.0072623013
       442.00002       286.55000       101631.64       8450.8900      -2.7845000    -0.087750000     -0.28950000       338.79800      0.55590808    0.0088283569
       445.00000       286.45000       101631.64       8426.0363      -3.4927500      0.63825010     -0.47125000       338.80300       2.5671362     0.032802460
       449.00002       286.55000       101631.64       8481.6574      -1.9137500    -0.096500000      0.10100000       339.02300       4.6037001     0.056202109
       452.00000       286.55000       101612.54       8483.2650      -3.3825000    -0.064750000     0.063000000       338.83500       4.8042160     0.054800832
       455.00003       286.55000       101650.64       8495.4402      -4.2542500     -0.99575010     -0.52875000       338.60700      -1.4271722    -0.012297442
       459.00000       286.55000       101631.64       8497.0418      -3.1010000    -0.031750000     0.060750000       338.67800       3.3759694     0.037135651
       462.00003       286.55000       101631.64       8481.6574      -3.4920000       1.8200000     -0.18850000       338.57500     -0.66432371    -0.012799190
       465.00001       286.45000       101631.64       8395.4724      -3.9652500     -0.72075000    -0.021000000       338.60300      0.54293786    0.0074319897
       469.00003       286.55000       101631.64       8450.8900      -2.9602500      0.90275000     -0.21225000       338.64600     0.012561709   0.00019880409
       472.00001       286.55000       101631.64       8435.5070      -3.4685000       1.2215000     -0.20100000       338.73800       2.4538700     0.026385105
       475.00000       286.45000       101631.64       8364.9103      -3.9040000      0.95450000     -0.49975000       338.65300      -2.1739525    -0.034356851
       479.00002       286.45000       101650.64       8363.3338      -2.5027500     -0.41725000      0.83525000       338.68100       2.7016981     0.046069400
       482.00000       286.55000       101631.64       8389.3608      -3.5392500      0.74375000     -0.26675000       338.76900       2.0754857     0.034240900
       485.00002       286.55000       101631.64       8373.9797      -3.2267500      0.22150000     -0.45250000       338.87900       1.3353042     0.013992890
       489.00000       286.45000       101631.64       8319.0706      -4.7507500      0.91125010      -1.2240000       338.74500      0.61944278    0.0075300048
       492.00003       286.45000       101612.54       8320.6472      -1.6305000      -1.2465000       1.4552500       338.94000       1.4419804     0.019156583
       495.00001       286.45000       101650.64       8332.7794      -3.9320000       2.0917500    -0.099500010       338.60000       1.9310325     0.021296986
       499.00003       286.45000       101631.64       8334.3501      -3.4667500       2.1957500      0.14500000       338.73500      0.59291904    0.0088921063
       502.00001       286.45000       101650.64       8348.0564      -3.6942500       1.4850000      0.25475000       338.65500       1.9258532     0.028836450
       505.00000       286.45000       101631.64       8349.6300      -3.1522500      0.64400010     -0.14850000       338.88100      0.91834701     0.015337582
       509.00002       286.55000       101631.64       8389.3608      -3.3637500      0.39550000       1.7057500       339.04000       2.5836836     0.035667510
       512.00000       286.45000       101650.64       8302.2268      -3.7780000      0.65575000    -0.064500000       338.78800      0.69249353     0.011416527
       515.00002       286.45000       101650.64       8286.9512      -2.1877500      0.34350000       1.1110000       338.82800      0.82688220     0.011171763
       519.00000       286.45000       101650.64       8271.6761      -3.4475000      0.68725000     -0.24625000       338.67300       1.2075426     0.012395524
       522.00003       286.45000       101631.64       8288.5132      -3.0280000       1.0740000     0.016000000       338.91300       1.0598391     0.013165170
       525.00001       286.45000       101631.64       8303.7917      -2.8462500      0.68525000      0.14875000       338.84200      0.97540854     0.017646566
       529.00003       286.45000       101650.64       8302.2268      -4.3367500     -0.39425000     -0.68575000       338.69600       1.3306371     0.018842262
       532.00001       286.45000       101631.64       8303.7917      -3.8472500     -0.39775000      0.29925000       338.60500       2.3726795     0.027914158
       534.99999       286.45000       101650.64       8317.5029      -5.4822500      -1.3512500     -0.95075010       338.76500     -0.49881279    -0.011156536
       538.00002       286.45000       101631.64       8303.7917      -4.6935000      0.74150000      0.34825000       338.70500       2.3757988     0.033550084
       542.00000       286.45000       101650.64       8302.2268      -3.6502500      0.65750000     -0.41300000       338.70300       2.2198712     0.024346112
       545.00002       286.45000       101650.64       8286.9512      -4.8115000       1.0925000     0.042500000       338.79000       1.4154990     0.016725236
       548.00000       286.35000       101650.64       8232.5747      -2.9385000      0.70600000     -0.32675000       338.81400       1.3753411     0.014692538
       552.00002       286.45000       101650.64       8286.9512      -3.2477500     -0.10475000     -0.23875000       338.82300       1.1906895     0.014266267
       555.00001       286.45000       101650.64       8302.2268      -3.4317500       1.0037500     -0.15450000       338.72800       3.7702586     0.026425461
       558.00003       286.35000       101631.64       8249.3037      -3.1952500       1.2695000     -0.15300000       338.65300       4.6336829     0.036374708
       562.00001       286.25000       101631.64       8195.1336      -2.7072500      0.59775000    -0.033250000       338.72800       2.7904458     0.030516721
       564.99999       286.35000       101650.64       8262.9242      -3.4550000       1.5665000     -0.27675000       338.78900       2.1453680     0.016908198
       568.00002       286.35000       101631.64       8264.4816      -2.7490000      0.97425000    -0.035750000       338.81700       1.4314866     0.010857734
       572.00000       286.25000       101650.64       8223.7389      -3.8587500       1.3212500      0.22875000       338.78800       1.5909761     0.014596182
       575.00002       286.25000       101650.64       8238.8144      -3.0592500     -0.15125000     0.058500000       338.69400       2.1668755     0.021467364
       578.00000       286.35000       101650.64       8308.4520      -3.0495000     -0.47825000      0.49750000       338.71600       1.3302447     0.010623650
       582.00002       286.35000       101650.64       8308.4520      -2.3690000      0.15925000      0.23475000       338.84600       1.1640680    0.0070887813
       585.00001       286.35000       101631.64       8310.0180      -3.8300000      0.81975000     -0.71400000       338.70800       4.9666143     0.024569669
       588.00003       286.35000       101631.64       8294.8388      -2.3690000      0.80550000      0.28800000       338.81000       4.6843200     0.028878876
       592.00001       286.35000       101631.64       8294.8388      -2.0420000      0.95775000     -0.15675000       338.83600       1.0160472    0.0066482647
       595.00003       286.25000       101671.64       8252.1715      -1.8835000       2.2312500     -0.34725000       338.73000      0.77517752    0.0056563315
       598.00002       286.45000       101650.64       8378.6117     -0.71100000      0.95100000     0.021000000       338.96400       3.5006811     0.021377053
       601.99999       286.35000       101650.64       8353.9838      -1.7180000       1.2435000      0.16425000       338.77000       1.2590741     0.011047780
       605.00002       286.35000       101650.64       8384.3407      -1.5905000       2.0497500     -0.80675010       338.72800      0.84461056    0.0093710426
       608.00000       286.35000       101650.64       8399.5198      -2.0312500       1.4510000      0.22875000       338.81800       2.1014351     0.016345420
       612.00002       286.55000       101671.64       8509.0494      -1.5010000       2.7210000     -0.17750000       338.54100       1.0036944    0.0059460251
       615.00000       286.35000       101631.64       8401.1031      -1.3805000       1.0932500    -0.059000000       338.99300     -0.14884098   -0.0012191073
       618.00003       286.25000       101612.54       8347.5097      -1.8300000       1.7675000     -0.19225000       338.74700       1.3231145     0.011823556
       622.00001       286.35000       101650.64       8429.8794      -2.6197500       4.0400000       1.0215000       338.67400    -0.078203881  -0.00068165792
       625.00003       286.35000       101671.64       8428.1237      -2.5950000       2.0485000     -0.44100000       338.62600       4.0796601     0.027111683
       628.00001       286.35000       101631.64       8446.6519      -1.7915000       1.7785000      0.52150010       338.80300       3.0293871     0.037000130
       631.99999       286.35000       101650.64       8460.2408      -1.2692500       1.4232500     0.056250000       338.77400      0.17759807    0.0017888167
       635.00002       286.25000       101650.64       8434.8361      -1.7550000       1.7612500      0.93925010       339.01600       1.2930115    0.0098742016
       638.00000       286.35000       101631.64       8507.3899      -2.9352500       2.3667500      -1.1707500       338.80100       2.2037466     0.021022341
       642.00002       286.35000       101650.64       8490.6040      -1.5345000       4.9155000      0.19275000       338.62900       1.0685901     0.015795451
       645.00000       286.45000       101650.64       8516.1338      -3.9482500       1.5155000      0.10775000       338.70800       1.8556451     0.018275429
       648.00003       286.35000       101650.64       8445.0599      -1.4000000       2.8040000      0.20850000       338.89200     -0.31429144   -0.0040048645
       652.00000       286.45000       101650.64       8500.8517      -3.7725000       2.0135000     0.037750000       338.67000       1.9247718     0.017957969
       655.00003       286.45000       101631.64       8487.1698      -3.9220000       2.2845000      0.22950000       338.60700      0.65780038    0.0077599841
       658.00001       286.45000       101650.64       8485.5701      -3.4042500       2.2365000     0.053000000       338.69000       1.8652409     0.019011218
       662.00003       286.35000       101650.64       8429.8794      -3.6332500       1.7267500     -0.19500000       338.70300      0.50529145    0.0055778031
       665.00001       286.35000       101631.64       8401.1031      -4.2397500       2.6207500     -0.53425000       338.82200       2.0330518     0.016068258
       668.00000       286.45000       101650.64       8455.0082      -2.1447500       2.4147500     -0.28550000       338.82200      0.15261358    0.0014190347
       671.00002       286.45000       101631.64       8471.8857      -3.8557500       2.2662500     -0.43975000       338.50200       3.0948869     0.025887108
       675.00000       286.45000       101631.64       8487.1698      -3.1795000       2.0937500     -0.26825000       338.85800      0.26506640    0.0031373253
       678.00002       286.35000       101650.64       8384.3407      -1.9880000       1.5175000      0.77425000       338.80200     -0.74930117   -0.0064294019
       681.00001       286.35000       101671.64       8367.4191      -2.2115000       3.8647500      0.55900000       338.86600     -0.70935759   -0.0067547573
       685.00003       286.65000       101650.64       8520.5117      -3.5522500       2.3092500     -0.27300000       338.81200       1.3249147     0.012103786
       688.00001       286.25000       101650.64       8314.1983      -1.9285000       1.9297500     -0.58125000       338.74600       2.5373728     0.022858912
       690.99999       286.45000       101631.64       8441.3190      -3.9897500       2.1935000     -0.42725000       338.68700     -0.18420531   -0.0022331571
       695.00001       286.45000       101650.64       8455.0082      -1.2982500       2.3840000      0.57125000       339.00400     -0.34952787   -0.0036307751
       698.00000       286.55000       101671.64       8524.4286      -2.0045000       2.3042500      0.70900010       338.79700      -2.6428817    -0.033574069
       701.00002       286.35000       101650.64       8399.5198      -1.9807500       1.7535000      0.18200000       338.92100      0.36054267    0.0029870369
       705.00000       286.45000       101671.64       8437.9702     -0.33075000       2.0222500      0.43850000       338.98200      -1.1878707    -0.014668337
       708.00002       286.45000       101631.64       8426.0363      -3.8527500       2.1935000      0.21050000       338.51700      0.28046096    0.0041465138
       711.00001       286.45000       101650.64       8424.4483      -3.1510000       2.4662500     -0.59350000       338.62900      0.71630657    0.0068358575
       715.00002       286.45000       101650.64       8455.0082      -1.9407500       1.2205000      0.57875000       338.82200      0.35303739    0.0043981279
       718.00001       286.45000       101650.64       8393.8901      -2.2610000      0.52775000      0.15425000       338.89900     -0.74231192    -0.010392767
       720.99999       286.45000       101650.64       8409.1690      -2.9930000       1.9937500     -0.32275000       338.70600      0.50640319    0.0076487584
       725.00001       286.55000       101650.64       8480.0587      -1.2157500       1.1695000      0.48700000       338.82800       1.2142799     0.013822396
       727.99999       286.55000       101650.64       8480.0587      -1.9735000       1.2765000     -0.36225000       338.90500       1.1414211     0.014087883
       731.00002       286.45000       101631.64       8410.7541      -2.2682500      0.87900010      0.14725000       338.87100      0.31342063    0.0033903704
       735.00000       286.45000       101631.64       8395.4724      -1.3222500       2.2240000     -0.30850000       338.61800     -0.58952544   -0.0079907138
       738.00002       286.35000       101650.64       8353.9838      -3.8897500       2.1265000     -0.46225000       338.75200      0.34268394    0.0039250448
       741.00000       286.45000       101650.64       8424.4483      -2.1952500       2.1222500      0.72125010       338.93200      0.27270542    0.0033818411
       745.00002       286.45000       101631.64       8426.0363      -1.6047500       1.4190000      0.64575000       338.91500      0.34105799    0.0052592636
       748.00001       286.35000       101650.64       8384.3407      -1.4835000       1.7552500     -0.40000000       338.88600    -0.017132131  -0.00024579193
       751.00003       286.45000       101671.64       8468.5247      -2.3802500       1.5492500     -0.78550000       338.72700       4.1842342     0.048347871
       755.00001       286.45000       101671.64       8483.8027      -1.3935000       1.8542500      0.15250000       338.88200       1.2132535     0.013647574
       757.99999       286.35000       101631.64       8431.4685      -2.0390000       1.4355000     -0.23975000       339.01500      0.97364531     0.011154064
       761.00002       286.35000       101631.64       8431.4685      -2.8265000       2.0185000   -0.0072500000       338.89600    -0.095805418   -0.0013052887
       764.99999       286.55000       101650.64       8541.5874      -1.1425000       1.8640000      0.27025000       339.04900       1.2917352     0.020265934
       768.00002       286.45000       101650.64       8455.0082      -1.1117500       1.5517500      0.24425000       338.87600       1.5391891     0.021550360
       771.00000       286.35000       101650.64       8399.5198      -1.9395000       1.5730000     -0.23875000       338.94100       3.4985213     0.040045179
       775.00002       286.45000       101650.64       8470.2889     -0.92275010       1.2610000      0.58525000       339.09500       1.5451930     0.022720808
       778.00000       286.35000       101671.64       8428.1237     -0.55400000       1.4280000      0.19650000       339.01000     -0.18088706   -0.0025273787
       781.00003       286.35000       101650.64       8429.8794      -1.7955000       1.0647500      0.67925010       339.05400       1.0830136     0.015049820
       785.00001       286.35000       101631.64       8416.2856      -1.7372500       1.3962500      0.37125000       339.01100      0.18353224    0.0027295612
       788.00003       286.45000       101650.64       8485.5701     -0.99500010       1.3967500     -0.71825000       338.80000       2.0718150     0.021437967
       791.00001       286.35000       101631.64       8431.4685      -1.0880000       1.1257500     -0.24925000       338.88600      0.86065471     0.015956135
       794.99999       286.45000       101650.64       8470.2889      -1.5695000       1.9897500     -0.81900010       338.61700      0.84515656    0.0098134305
       798.00002       286.35000       101650.64       8384.3407      -1.6130000       3.7432500     0.041750000       338.56500       2.8391956     0.028919467
       801.00000       286.35000       101650.64       8384.3407      -1.2480000       2.3352500     -0.36550000       338.57900       3.1664549     0.033252741
       804.00002       286.35000       101631.64       8370.7396      -1.1155000       2.0412500      0.19925000       338.66900       1.2673510     0.019643777
       808.00000       286.35000       101671.64       8352.2441      -1.1035000       1.9865000    -0.035750000       338.75000       3.6970133     0.042761350
       811.00003       286.35000       101650.64       8369.1620      -2.1685000       1.2940000     -0.20325000       338.76800    -0.082671922   -0.0010067448
       814.00001       286.45000       101650.64       8439.7280      -1.5455000       1.2760000    -0.026250000       338.71000      0.76370066    0.0075519735
       818.00003       286.45000       101650.64       8455.0082      -2.3945000       1.8425000     -0.65375000       338.74900       1.0857496     0.010785333
       821.00001       286.45000       101650.64       8455.0082      -1.6932500      0.60275000      0.44125000       338.90500      0.25434461    0.0023188279
       824.00000       286.65000       101650.64       8551.4788      -3.4480000       1.5982500     -0.21675000       338.47500       1.1028064     0.010851098
       828.00002       286.35000       101650.64       8384.3407      -2.5652500       1.5257500    -0.025500000       338.64300      0.54179913    0.0053353082
       831.00000       286.35000       101650.64       8384.3407      -1.1182500       1.3910000      0.47700000       338.83900      0.25727261    0.0026096140
       834.00002       286.35000       101671.64       8397.7705     -0.97775010       1.1407500     -0.13600000       338.85500    -0.038629090  -0.00033373479
       838.00000       286.35000       101631.64       8385.9211      -2.3595000      0.73775010      0.34275000       338.85500      -1.2351817    -0.019540097
       841.00002       286.45000       101650.64       8424.4483      -2.6682500       1.3437500     -0.40675000       338.73100       1.7999602     0.016435961
       844.00001       286.45000       101650.64       8424.4483      -1.9817500       1.6400000      0.28825000       338.88600      0.42319509    0.0044537284
       848.00003       286.45000       101650.64       8424.4483     -0.50375000       1.8305000      0.10700000       338.84100      -1.9174972    -0.021141020
       851.00001       286.35000       101650.64       8338.8061      -2.2347500       1.2967500    -0.089750010       338.56800     -0.62499187    -0.010720095
       853.99999       286.45000       101650.64       8393.8901      -1.4760000       1.6717500     -0.26250000       338.68800       1.1846789     0.012304321
       858.00001       286.35000       101650.64       8338.8061      -1.0817500       1.1937500     -0.53550000       338.60700     -0.84258243    -0.011286620
       861.00000       286.45000       101650.64       8409.1690     -0.61300000       1.4170000    -0.066000000       338.67400      0.48164392    0.0053708252
       864.00002       286.55000       101671.64       8462.9147      -1.2415000       1.1152500     -0.20400000       338.79000      -1.8403324    -0.022210270
       868.00000       286.35000       101671.64       8337.0695      -1.6127500       1.0770000     0.068250000       338.92900      0.68053004    0.0081885347
       871.00002       286.35000       101650.64       8338.8061      -3.0670000      0.88600000     -0.19075000       338.83800      0.54569054    0.0062300474
       874.00001       286.35000       101650.64       8338.8061      -1.4527500      0.75775000      0.59250000       338.74000      0.66207311    0.0098942009
       878.00003       286.35000       101650.64       8323.6288      -1.1962500       1.3320000      0.68275000       338.89400     -0.66879477    -0.011008066
       881.00001       286.35000       101650.64       8323.6288      -1.7947500      0.96850000      0.58125000       339.00700       1.2246158     0.014364080
       883.99999       286.35000       101631.64       8325.1977      -2.6737500       2.2117500     0.052000000       338.80900      -1.4207425    -0.014004657
       888.00001       286.35000       101650.64       8323.6288      -1.7015000       1.3635000      0.25975000       338.98000       2.6941863     0.036165924
       891.00000       286.25000       101650.64       8284.0434      -1.3370000       1.8540000     -0.53975000       338.86500      0.72288810    0.0084118591
       894.00002       286.35000       101650.64       8338.8061     -0.91350010       1.4427500     -0.18625000       338.90600      -1.2737763    -0.011864775
       898.00000       286.35000       101650.64       8353.9838      -1.3660000       1.3025000     -0.14775000       338.88900     -0.38423068   -0.0042855400
       901.00002       286.35000       101650.64       8369.1620     -0.50825000      0.87425010      0.14000000       338.96800      -1.7397149    -0.018119813
       904.00001       286.45000       101671.64       8422.6937      -1.0107500       1.0670000     -0.19900000       338.92300      -1.4506312    -0.014212937
       908.00002       286.35000       101650.64       8369.1620     -0.54850000       1.2282500      0.48450000       339.07900     -0.18008008   -0.0018537690
       911.00001       286.35000       101650.64       8399.5198      -1.0542500       1.1180000     -0.61000000       338.81400     -0.30342108   -0.0039700392
       914.00003       286.25000       101650.64       8374.5136     -0.56100000       1.6785000     0.026750000       338.76900       3.0212574     0.031724478
       918.00001       286.55000       101671.64       8555.1884     -0.88950000       2.6795000     -0.41850000       338.92400     -0.10589706   -0.0012001308
       920.99999       286.35000       101650.64       8429.8794     -0.60150000       1.5957500     -0.26425000       339.04800       1.5576169     0.021912616
       924.00002       286.25000       101612.54       8392.7654     -0.73225000      0.83700000     -0.36000000       339.01000      0.58222221    0.0069888657
       928.00000       286.25000       101650.64       8389.5936      -1.4722500      0.93750010     -0.15575000       339.05000       1.0712403     0.012537243
       931.00002       286.25000       101671.64       8402.9236     -0.68525000      0.83775000      0.35975000       339.18800     -0.50670213   -0.0066177195
       934.00000       286.65000       101631.64       8630.5319     -0.93875000       1.1680000      0.33925000       339.05800       1.1872593     0.013177337
       938.00002       286.35000       101650.64       8460.2408     -0.88650010       1.3137500    -0.093500000       338.92300      -1.6536977    -0.018882962
       941.00001       286.25000       101650.64       8389.5936      -1.6425000       1.5357500      0.17650000       338.81000       2.6345281     0.027743610
       944.00003       286.35000       101650.64       8445.0599      -1.6570000       1.5522500      0.75675000       338.88200      0.70361706    0.0088056850
       947.00001       286.45000       101631.64       8517.7393      -1.2455000       1.8507500    -0.045000000       338.94800     -0.28294618   -0.0038633022
       950.99999       286.45000       101650.64       8546.6993     -0.90150000       2.1357500     0.026000000       338.75300       2.1607951     0.036446802
       954.00002       286.45000       101650.64       8592.5511      -1.0910000       2.1087500      0.10425000       338.87900       1.5187426     0.021399227
       957.00000       286.45000       101650.64       8607.8360      -1.1375000       1.9342500      0.28650000       338.93200      0.40114400    0.0045352396
       961.00002       286.35000       101650.64       8551.3360     -0.52550000       1.7947500      0.29625000       338.81400     -0.52376273   -0.0064809087
       964.00000       286.35000       101650.64       8536.1524     -0.84800000       1.6622500     -0.49325000       339.00300      -1.1718157    -0.017758911
       967.00003       286.45000       101650.64       8607.8360      -2.5072500       1.9272500     -0.84500000       338.61500     -0.24735453   -0.0037404926
       971.00000       286.35000       101671.64       8534.3743      -1.6405000       1.5417500   -0.0020000000       338.74000     -0.11337737   -0.0014866168
       974.00003       286.55000       101650.64       8618.5089      -2.2582500       2.5937500     -0.47550000       338.69900       5.2794524     0.076329349
       977.00001       286.55000       101650.64       8603.1236      -1.4915000       3.0145000     -0.41200000       338.87100       1.1983104     0.016570202
       981.00003       286.55000       101650.64       8556.9708      -1.7852500       2.2980000     -0.17125000       338.63200     -0.32327902   -0.0038057872
       984.00001       286.45000       101650.64       8470.2889      -2.2775000       1.5085000      0.57100000       338.60600      0.28955108    0.0032615451
       987.00000       286.45000       101650.64       8439.7280      -1.7945000       2.2135000     -0.65075000       338.66100      0.52841803    0.0068015153
       991.00002       286.35000       101650.64       8353.9838      -1.9802500       2.3940000     -0.17075000       338.69800      0.31616550    0.0031768885
       994.00000       286.45000       101631.64       8380.1911     -0.85050000       2.0750000      0.17775000       338.63000      0.70028728    0.0084206612
       997.00002       286.45000       101631.64       8364.9103      -1.5912500       2.0060000     -0.80475000       338.71000       1.2139587     0.017743191
       1001.0000       286.35000       101631.64       8310.0180     -0.99225000       2.7477500     -0.41975000       338.53900      0.41513980    0.0046666412
       1004.0000       286.35000       101631.64       8325.1977     -0.59450000       2.1675000      0.13450000       338.95800     -0.60360875   -0.0074572634
       1007.0000       286.35000       101650.64       8293.2756     -0.95150010       1.5652500     0.049750000       338.93900       3.2361851     0.049395864
       1011.0000       286.45000       101650.64       8378.6117      -1.2380000       1.3390000     -0.43325000       338.72900      0.56898628    0.0061903335
       1014.0000       286.35000       101671.64       8321.8954     -0.42850000      0.33500000      0.25275000       338.99100      -1.6383513    -0.023431826
       1017.0000       286.35000       101671.64       8306.7218      -1.7550000       1.2062500     -0.27600000       338.76100       1.9554106     0.024970984
       1021.0000       286.25000       101650.64       8253.8903     -0.90700010      0.88350000      0.11125000       338.96600       1.4084875     0.015007225
       1024.0000       286.35000       101650.64       8338.8061     -0.86250000       1.2842500      0.14450000       338.92800       2.3877649     0.024449764
       1027.0000       286.35000       101650.64       8323.6288     -0.64950000       1.3267500      0.14950000       339.03600     -0.77087569    -0.010669283
       1031.0000       286.35000       101631.64       8340.3779      -1.2670000       1.0515000    -0.047500000       338.88300       1.5683196     0.017520610
       1034.0000       286.35000       101650.64       8338.8061      -2.2940000       2.4635000     -0.36025000       338.72100    -0.061654356  -0.00067459327
       1037.0000       286.35000       101650.64       8353.9838      -2.5345000       2.0032500     -0.24350000       338.69800     -0.28478812   -0.0040280763
       1041.0000       286.25000       101631.64       8330.8465      -2.0080000       1.6085000     -0.66050000       338.71200      0.13506622    0.0014183975
       1044.0000       286.35000       101650.64       8399.5198     -0.72850000       1.9262500     -0.19100000       338.81200       1.3155753     0.015197975
       1047.0000       286.65000       101631.64       8615.0428      -1.0527500       1.1822500     -0.32775000       338.90900       2.2120933     0.042015284
       1051.0000       286.25000       101650.64       8434.8361      -1.1037500       3.7627500      0.67650000       338.78200     -0.88399420    -0.011429465
       1054.0000       286.25000       101631.64       8481.6814      -2.7862500       1.7232500     -0.51725000       338.79200       2.2974839     0.026292302
       1057.0000       286.25000       101671.64       8493.3965      -2.2395000       2.1845000     -0.27225000       338.79500      0.19067089    0.0019977415
       1061.0000       286.25000       101671.64       8508.4768      -2.1637500       1.8840000     -0.86825000       338.84200     0.037986359   0.00045776147
       1064.0000       286.55000       101650.64       8680.0545      -2.7587500       1.8495000     -0.29550000       338.83900      0.94072114     0.010287498
       1067.0000       286.35000       101631.64       8568.1353      -1.3052500       1.4357500     -0.15050000       338.86800     -0.62089262   -0.0074760213
       1070.0000       286.25000       101671.64       8478.3165      -1.6027500      0.94775000     -0.27925000       338.92900      0.41190971    0.0040145452
       1074.0000       286.25000       101631.64       8466.5959      -1.6305000       1.7222500     -0.49300000       338.76200       1.2162516     0.013746713
       1077.0000       286.35000       101650.64       8505.7864      -1.8777500       1.4355000   -0.0067500000       338.89400     -0.59669464   -0.0067174401
       1080.0000       286.25000       101650.64       8449.9179      -1.3647500       1.4687500      0.18825000       339.09200      0.12619468    0.0013099172
       1084.0000       286.25000       101650.64       8449.9179      -1.1290000       1.6902500      0.16150000       338.95500      0.60357546    0.0065714010
       1087.0000       286.25000       101631.64       8451.5108      -1.4710000       1.2022500      0.12750000       338.89000       2.6726925     0.029908030
       1090.0000       286.35000       101671.64       8534.3743      -2.3062500      0.90375010      0.18400000       338.86300      -1.0166528    -0.011732223
       1094.0000       286.55000       101650.64       8680.0545      -1.9082500      0.41425000      0.10250000       338.88400     -0.46091338   -0.0095196344
       1097.0000       286.15000       101671.64       8467.5274      -1.4887500       2.2525000     -0.37975000       338.84700     -0.33612762   -0.0044062435
       1100.0000       286.25000       101650.64       8525.3334      -2.0000000       2.0117500      -1.0095000       338.74900       1.3059011     0.016351746
       1104.0000       286.65000       101631.64       8754.4620      -2.3385000       1.9817500     -0.66575000       338.73600   0.00024978531  4.0399199e-006
       1107.0000       286.25000       101671.64       8538.6390      -1.4850000       1.5827500     -0.42725000       338.75700       1.4423814     0.020497434
       1110.0000       286.25000       101631.64       8526.9407      -1.8240000       1.0495000    -0.069750000       338.94000       2.8743645     0.038973978
       1114.0000       286.25000       101612.54       8528.5570      -1.2392500     -0.25700000      0.28500000       338.96500      0.62689418    0.0082987298
       1117.0000       286.25000       101612.54       8528.5570      -1.4905000     0.064500000      0.46125000       338.95500      0.12722343    0.0013419782
       1120.0000       286.25000       101650.64       8510.2494      -2.1875000      0.34700000     -0.26600000       338.91900       2.1651234     0.034891787
       1124.0000       286.25000       101650.64       8480.0828      -1.9545000      0.42000000     -0.10000000       338.94600       3.9336783     0.052402100
       1127.0000       286.25000       101631.64       8466.5959      -3.0087500       1.1552500     -0.23050000       338.68600      0.10626714    0.0012167992
       1130.0000       286.25000       101631.64       8466.5959      -2.5592500      0.49975000     0.083000000       338.99300       1.3782557     0.015576362
       1134.0000       286.25000       101650.64       8465.0001      -2.5062500       1.2460000     -0.25550000       338.99700     0.016488726   0.00021295380
       1137.0000       286.25000       101650.64       8480.0828      -2.4430000     -0.16525000     0.032500000       338.63400      0.91555483     0.014400217
       1140.0000       286.25000       101631.64       8481.6814      -2.3102500      0.55725000   -0.0045000000       338.84400     -0.45503949   -0.0053850506
       1144.0000       286.25000       101631.64       8496.7674      -2.3205000      0.84450010     -0.77450000       338.70800      0.86986344     0.010972900
       1147.0000       286.15000       101631.64       8455.9011      -2.1930000      0.96775010     -0.12400000       339.04100     0.096135592    0.0013740385
       1150.0000       286.25000       101631.64       8511.8538      -2.3105000       1.1910000     -0.14175000       339.00700       2.2545525     0.030087630
       1154.0000       286.15000       101631.64       8425.9287      -1.6672500     -0.17525000     0.056000000       338.99500      0.51998648    0.0055400139
       1157.0000       286.25000       101631.64       8481.6814     -0.89425000      0.70625000     -0.28725000       338.86300       1.6013689     0.019031064
       1160.0000       286.25000       101612.54       8483.2891      -3.3425000      0.42350000     -0.26975000       338.75500     -0.60687067   -0.0075630557
       1164.0000       286.15000       101631.64       8425.9287      -3.4100000       1.9312500      0.14575000       338.81600       2.5897364     0.033777735
       1167.0000       286.15000       101650.64       8424.3407      -3.8350000       2.2980000    -0.074250010       338.69800    -0.080641236   -0.0011458167
       1170.0000       286.15000       101631.64       8425.9287      -3.8635000      0.58050000     0.049750000       338.64400       1.2469189     0.016861308
       1174.0000       286.25000       101631.64       8496.7674      -4.5395000       1.4300000      -1.0870000       338.75500      -1.5894038    -0.019747205
       1177.0000       286.25000       101631.64       8496.7674      -3.9160000       1.1850000     -0.49850000       338.67600     0.035845253   0.00057035352
       1180.0000       286.15000       101650.64       8424.3407      -2.4365000      0.62950000    -0.064250000       338.74800     -0.63720714   -0.0088862638
       1184.0000       286.25000       101631.64       8466.5959      -3.6245000      0.66950010     -0.11950000       338.41200      0.37096791    0.0054337820
       1187.0000       286.15000       101631.64       8395.9581      -2.9795000       1.1280000      0.24100000       338.55100     -0.99024206    -0.019107615
       1190.0000       286.25000       101650.64       8449.9179      -2.2942500       1.2002500     0.087750000       338.66800     -0.34341483   -0.0053126579
       1194.0000       286.15000       101631.64       8365.9892      -3.1220000      0.46875000      0.43300000       338.78300      0.35245706    0.0064335764
       1197.0000       286.15000       101631.64       8351.0055      -3.4567500       2.2955000      0.15400000       338.83500      0.97742840     0.011490050
       1200.0000       286.45000       101631.64       8517.7393      -3.4152500     -0.31850000     -0.28675000       338.68700      0.27600849    0.0044181570
       1204.0000       286.15000       101612.54       8352.5882      -3.0697500       1.1012500      0.15375000       338.59400      -1.5544511    -0.019592583
       1207.0000       286.15000       101631.64       8365.9892      -2.1865000     0.046500000      0.26900000       338.67000      0.13933965    0.0020220287
       1210.0000       286.15000       101631.64       8351.0055      -2.9095000       1.8520000      0.53800000       338.92500      0.47136049    0.0069769612
       1213.0000       286.25000       101650.64       8404.6740      -3.2045000       1.5597500     -0.40075000       338.69700    -0.014405388  -0.00033867779
       1217.0000       286.25000       101612.54       8407.8516      -2.5662500       2.0945000      0.55400000       338.76600       4.1751040     0.067320883
       1220.0000       286.15000       101650.64       8334.4512      -3.1367500      0.74375000      0.33650000       338.90400     -0.57154195    -0.011608210
       1223.0000       286.25000       101631.64       8376.0922      -5.0472500      0.77175000     -0.39150000       338.66000     -0.16471063   -0.0021674858
       1227.0000       286.15000       101631.64       8321.0393      -5.7342500       1.8695000     -0.62425010       338.58300      0.20864120    0.0040824835
       1230.0000       286.15000       101631.64       8321.0393      -6.4667500      0.79625000     -0.21275000       338.50700    -0.080895662   -0.0010459245
       1233.0000       286.45000       101631.64       8502.4543      -4.7227500      0.76275000     -0.36500000       338.46600       1.9674114     0.030185965
       1237.0000       286.15000       101631.64       8336.0222      -3.2207500      0.45350000      0.15175000       338.47100       3.0746235     0.036410938
       1240.0000       286.15000       101650.64       8319.4712      -2.7105000      0.19700000     0.091250000       338.71900     -0.96742527    -0.012950312
       1243.0000       286.15000       101650.64       8319.4712      -2.4122500      0.39625000      0.30200000       338.74300      -1.5850767    -0.021199996
       1247.0000       286.15000       101631.64       8336.0222      -2.1100000      0.77050010     -0.21800000       338.66600    -0.032067003  -0.00038431480
       1250.0000       286.15000       101631.64       8336.0222      -3.1065000      0.50850000     -0.19875000       338.73600       1.6042318     0.017998806
       1253.0000       286.15000       101631.64       8336.0222      -3.3632500       1.2952500      0.15675000       338.53700     -0.89563881   -0.0093816973
       1257.0000       285.95000       101650.64       8239.9139      -3.7635000      0.96975000     -0.14125000       338.72400     -0.57522983   -0.0087043995
       1260.0000       286.45000       101631.64       8502.4543      -2.4212500       1.2882500      0.66325000       338.77000       1.1909933     0.016603024
       1263.0000       286.25000       101650.64       8389.5936      -1.8695000       1.0210000      0.30025000       338.76200       1.5657045     0.027880424
       1267.0000       286.05000       101631.64       8296.0756      -2.6875000      0.73475000     -0.31950000       338.69000      0.17653078    0.0028144705
       1270.0000       286.05000       101631.64       8281.1916      -2.0545000      0.76800000     -0.12325000       338.85800       3.0567187     0.060163513
       1273.0000       286.05000       101631.64       8296.0756      -3.2135000      0.34500000      0.18050000       338.90300      0.96573386     0.014155758
       1277.0000       286.15000       101650.64       8349.4317      -2.6492500       1.1845000     0.063500000       338.71400      0.77933768     0.011223238
       1280.0000       286.05000       101631.64       8281.1916      -3.5180000      0.97675010     -0.27150000       338.64800       1.4949501     0.025635200
       1283.0000       286.05000       101650.64       8294.5122      -1.9240000      0.85925010      0.54950000       338.75900       1.7417819     0.029376936
       1287.0000       286.45000       101650.64       8516.1338      -2.4627500      0.54250000    -0.087250000       338.73200       2.1919947     0.024368431
       1290.0000       286.05000       101650.64       8309.3937      -2.7702500      0.38525000     -0.13450000       338.53800       1.6202632     0.018923643
       1293.0000       286.05000       101631.64       8325.8448      -2.0110000      0.94375000     -0.15450000       338.81800       1.3138179     0.038204389
       1297.0000       286.05000       101650.64       8339.1582      -1.7332500       1.0115000      0.50775000       338.85100      -1.5736929   -0.0074488490
       1300.0000       286.05000       101650.64       8368.9244      -3.1825000       1.4282500     -0.49700000       338.78900      -6.3414384    -0.032954649
       1303.0000       286.15000       101631.64       8455.9011      -2.6110000       1.8747500      0.45400000       338.77400      -5.0514240    -0.038281992
       1307.0000       285.95000       101631.64       8344.9752     -0.93925010       1.1257500     -0.10825000       338.96200      -5.0716964    -0.019178450
       1310.0000       285.95000       101631.64       8359.7639      -1.2495000      0.62200000      0.33950000       338.86400     -0.97301864   -0.0059156691
       1313.0000       285.95000       101650.64       8372.9747      -2.0502500       1.0470000     -0.29275000       338.65600       1.3323375     0.034857375
       1317.0000       285.95000       101631.64       8389.3425      -1.8612500    -0.029750000      0.55275010       338.86400     -0.56926849   -0.0089649679
       1320.0000       285.95000       101631.64       8389.3425      -1.9070000       1.4160000      0.58775000       338.89200       2.8577639     0.048817168
       1323.0000       285.95000       101650.64       8402.5485      -3.1070000       2.1322500    -0.020750000       338.73400       2.5036524     0.037089557
       1327.0000       285.95000       101650.64       8387.7614      -3.4410000      0.84800000      0.38050000       338.75000      0.26974011    0.0041256149
       1330.0000       286.05000       101631.64       8415.1630      -2.8852500       1.3710000     -0.69675000       338.71800     -0.15171120   -0.0020463704
       1333.0000       285.95000       101650.64       8358.1884      -4.3792500       2.1570000     -0.22325000       338.66900     -0.71682720    -0.011781292
       1337.0000       285.95000       101631.64       8344.9752      -2.7565000       2.2617500      0.30225000       338.77200      -1.5021156    -0.025070859
       1340.0000       285.95000       101631.64       8344.9752      -2.2585000       4.4907500    -0.095000010       338.58000       2.9830642     0.050279714
       1343.0000       286.15000       101631.64       8455.9011      -3.2097500       2.9360000     -0.56325000       338.84500       1.9267004     0.028150856
       1346.0000       285.95000       101650.64       8358.1884      -3.7522500       2.4380000    -0.020750000       338.61500      0.41322090    0.0065830315
       1350.0000       285.95000       101650.64       8343.4026      -3.5202500       2.1177500     -0.28450000       338.92000     -0.33549227   -0.0049725523
       1353.0000       285.95000       101612.54       8346.5568      -2.3770000       1.8720000     -0.14475000       338.92000       1.1949073     0.019596646
       1356.0000       285.95000       101650.64       8343.4026      -3.2325000       1.8240000     -0.35225000       338.78900      0.34771521    0.0051795933
       1360.0000       285.95000       101631.64       8344.9752      -3.5525000       1.4467500     -0.35800000       338.63700      -1.3654488    -0.024770028
       1363.0000       285.95000       101631.64       8344.9752      -2.8857500       2.4610000      0.54900000       338.76900     -0.84411238    -0.010033536
       1366.0000       285.95000       101650.64       8343.4026      -2.2762500       1.9012500      0.86950000       338.72900     0.048776734   0.00056259034
       1370.0000       285.95000       101671.64       8341.6650      -2.0207500       1.5587500      0.51725000       338.83700     -0.97048684    -0.015683799
       1373.0000       285.95000       101612.54       8346.5568      -2.1420000       1.3920000      0.35825000       338.84200      0.13469102    0.0020662551
       1376.0000       285.95000       101612.54       8346.5568      -1.5082500       1.8785000     -0.18400000       338.86000      -1.8570860    -0.024388075
       1380.0000       285.85000       101631.64       8304.6891      -3.1745000       1.6902500     -0.34475000       338.74000     -0.32595776   -0.0037940620
       1383.0000       285.95000       101650.64       8372.9747      -2.1337500       1.7350000      0.31950000       338.77400      -2.3791043    -0.031957969
       1386.0000       285.95000       101650.64       8402.5485      -3.3827500       2.0165000      0.27825000       338.77700      -1.0654566    -0.011828596
       1390.0000       285.95000       101650.64       8417.3361      -2.6832500       1.5832500      0.16900000       338.84900      0.20694988    0.0029231866
       1393.0000       285.95000       101612.54       8420.5185      -4.1475000       2.4290000    -0.044000000       338.62900      -2.8526890    -0.031220592
       1396.0000       285.95000       101631.64       8418.9228      -3.9077500       3.4212500      0.39700000       338.74500      -2.4621141    -0.027662632
       1400.0000       285.95000       101631.64       8418.9228      -3.7502500       1.5625000     -0.53500000       338.63100      -2.2030541    -0.026064893
       1403.0000       285.95000       101650.64       8417.3361      -3.2387500       2.2482500      0.43800000       338.79900      0.16693013    0.0020454355
       1406.0000       285.85000       101631.64       8348.7629      -2.0612500       1.8505000     0.075250010       338.67200      -2.6393187    -0.039637166
       1410.0000       285.95000       101631.64       8404.1324      -1.4065000       1.5172500     0.073250000       338.63400      -2.6294126    -0.032543491
       1413.0000       285.85000       101631.64       8334.0713      -2.1482500       1.5645000       1.1172500       338.81300      0.93725212     0.015298573
       1416.0000       285.85000       101631.64       8334.0713      -1.6480000       4.6730000      0.91700010       338.56400      0.18052848    0.0022144157
       1420.0000       285.95000       101631.64       8389.3425      -2.6015000       1.8442500     -0.32750000       338.66100       1.0822536     0.014349588
       1423.0000       285.95000       101631.64       8359.7639      -1.3940000   -0.0045000000    -0.092000010       338.91500      -1.0521854    -0.011441105
       1426.0000       285.85000       101650.64       8288.4365      -1.2770000    -0.043500000      0.38800000       338.73400     -0.61272317    -0.010215359
       1430.0000       286.15000       101650.64       8424.3407      -1.3242500      0.26825000      0.48450000       338.75200      -1.9549666    -0.031748353
       1433.0000       285.85000       101631.64       8260.6192      -1.4185000       1.1225000    -0.072500010       338.92200      -1.0109522    -0.015658781
       1436.0000       285.85000       101631.64       8260.6192      -3.3037500       1.5302500     -0.88975010       338.61300      -1.3517128    -0.022571479
       1440.0000       285.85000       101631.64       8275.3087      -2.8435000       1.7315000     -0.59025000       338.75200      0.78058864     0.010548020
       1443.0000       285.85000       101650.64       8259.0625      -1.9705000      0.66775010    -0.086500000       338.79800       1.5063125     0.022704454
       1446.0000       285.85000       101631.64       8275.3087      -5.5090000       2.0337500     -0.15775000       338.66500     -0.61837537   -0.0091321304
       1450.0000       285.85000       101631.64       8275.3087      -4.3947500       1.3682500     -0.51550000       338.62500     -0.91745035    -0.017672289
       1453.0000       285.85000       101631.64       8289.9987      -3.5625000       1.7647500     -0.41875000       338.58000     -0.10816619   -0.0017430947
       1456.0000       285.85000       101612.54       8306.2630      -2.4567500       1.9897500     -0.32250000       338.82700      -1.1199808    -0.016321402
       1460.0000       285.85000       101612.54       8320.9567      -1.3582500       1.3300000    -0.048250000       338.69000       2.0506938     0.031301672
       1463.0000       285.85000       101631.64       8304.6891      -2.9212500       1.7105000     -0.31250000       338.71500      -1.4599925    -0.019770587
       1466.0000       285.85000       101631.64       8289.9987      -2.7220000       1.2727500     -0.24450000       338.62300      -3.1496306    -0.054407257
       1470.0000       285.85000       101650.64       8288.4365      -2.8375000       1.5615000     -0.33400000       338.66800     -0.73613944   -0.0087112994
       1473.0000       285.75000       101650.64       8248.3824      -2.2900000       1.0845000      0.21725000       338.78900     -0.58572582   -0.0069896378
       1476.0000       285.85000       101612.54       8306.2630     -0.63050000       1.7130000    -0.027500000       338.77800      0.48426910    0.0079571293
       1479.0000       285.85000       101650.64       8303.1241      -1.7862500       1.1810000     -0.14075000       338.70900      -1.4097937    -0.014982196
       1483.0000       285.85000       101631.64       8334.0713      -1.2717500       1.4825000    -0.079000000       338.86600      -1.0783448    -0.012274901
       1486.0000       285.95000       101631.64       8418.9228      -2.6735000       2.0442500    -0.095500010       338.75900      -2.0154546    -0.023321606
       1489.0000       285.75000       101631.64       8322.9072      -3.2650000       1.3042500     -0.28875000       338.77000     -0.27063966   -0.0032719355
       1493.0000       285.85000       101631.64       8378.1476      -2.8800000       2.4062500     -0.23200000       338.79000      -3.2606276    -0.031125905
       1496.0000       285.75000       101631.64       8337.5025      -1.9630000       1.6780000      -1.0547500       338.79900     -0.88362731    -0.010161490
       1499.0000       285.75000       101631.64       8337.5025      -2.9410000       1.5132500     0.017750000       338.81000     -0.90907221   -0.0091256192
       1503.0000       285.85000       101650.64       8420.6405      -1.2560000       2.3247500     -0.58325000       338.73700     -0.96820797    -0.012716067
       1506.0000       285.85000       101631.64       8436.9221      -1.2167500       1.9967500     0.062000000       338.65000     -0.35274778   -0.0058340825
       1509.0000       285.85000       101650.64       8450.0239      -1.8282500       1.5065000      0.63375000       338.87500      -1.8548526    -0.023296307
       1513.0000       285.85000       101631.64       8466.3119      -2.1617500       1.4995000      0.23250000       338.72500     -0.72731576    -0.010983922
       1516.0000       285.85000       101650.64       8494.1021      -2.0895000       2.9512500     0.053750000       338.66400      0.68898746     0.011077453
       1519.0000       285.75000       101650.64       8452.6867      -1.4222500       2.4942500      0.15775000       338.91400      -2.6036471    -0.036763503
       1523.0000       285.95000       101631.64       8581.6456      -2.3460000    -0.033250000      0.14700000       338.97300     -0.14888939   -0.0015771585
       1526.0000       285.75000       101631.64       8439.6815      -2.7215000       1.6360000    -0.017500000       338.77700     -0.35937826   -0.0064780175
       1529.0000       285.85000       101631.64       8495.7035      -1.5172500      0.97050010      0.22550000       338.82000      -1.6524192    -0.018601410
       1533.0000       285.75000       101650.64       8467.2830      -1.7490000       1.4357500     -0.17150000       338.78200     -0.93892422    -0.010624796
       1536.0000       285.85000       101631.64       8525.0967      -1.5537500       2.9862500     -0.66450010       338.78900     -0.97662536    -0.011020823
       1539.0000       285.85000       101631.64       8510.3999      -2.7147500       2.0232500     -0.78525000       338.73000      -1.0936380    -0.018373233
       1543.0000       285.85000       101650.64       8494.1021      -1.1932500       1.9780000      0.43250000       338.68100      -1.3433999    -0.019219442
       1546.0000       285.85000       101631.64       8495.7035      -1.7397500       4.7227500     -0.45000000       338.77900      -2.0142690    -0.027367808
       1549.0000       285.85000       101631.64       8495.7035      -2.0655000       2.4190000      -1.3252500       338.83800      -3.3518209    -0.053065657
       1553.0000       285.85000       101631.64       8466.3119      -3.8227500       1.4577500     -0.22500000       338.52900      -2.5249501    -0.029264027
       1556.0000       285.85000       101650.64       8435.3320      -3.5272500       2.2277500     -0.42400000       338.62500     -0.43954102   -0.0067296903
       1559.0000       285.85000       101631.64       8436.9221      -1.6015000       1.1722500      0.42350000       338.62300      -1.6450130    -0.018708171
       1563.0000       285.75000       101650.64       8379.7114      -3.3380000       1.8122500     -0.36050000       338.62800      -2.1274460    -0.023161127
       1566.0000       286.15000       101631.64       8605.7899      -2.0345000       2.0327500     -0.29975000       338.54800      -2.6227075    -0.029738239
       1569.0000       285.85000       101650.64       8420.6405      -1.7512500       1.5665000     -0.34525000       338.65000     -0.83727565   -0.0092544429
       1573.0000       285.85000       101631.64       8422.2279      -2.1400000       1.4192500     -0.32025000       338.78600      -1.5899294    -0.014870943
       1576.0000       286.05000       101631.64       8534.2785      -2.3112500       1.4772500     -0.34850000       338.67500      -2.2316421    -0.030784841
       1579.0000       285.95000       101650.64       8491.2804      -2.2880000      0.72925000      0.17475000       338.68500      -2.3923927    -0.042763084
       1583.0000       285.95000       101650.64       8491.2804      -1.6280000       2.1197500     -0.44875000       338.89000      -2.0650778    -0.037305580
       1586.0000       285.95000       101631.64       8507.6742      -1.8837500       1.2070000      0.55925000       338.61200      0.23297855    0.0027673173
       1589.0000       285.85000       101650.64       8464.7162      -1.4067500    -0.045250000      0.18925000       338.89800     -0.85541481    -0.011933513
       1593.0000       285.85000       101650.64       8450.0239      -3.4560000      0.70275000     -0.22650000       338.53400      0.64369914     0.010378354
       1596.0000       285.85000       101631.64       8451.6168      -1.8670000      0.70125000      0.31025000       338.79700     -0.47221761   -0.0062061991
       1599.0000       285.85000       101631.64       8436.9221      -3.7955000       2.4767500     -0.66300000       338.60500      0.35885152    0.0044977835
       1603.0000       286.05000       101650.64       8532.6698      -2.3020000       2.0992500      0.68175010       338.72100      -1.8585324    -0.029825924
       1606.0000       285.75000       101650.64       8365.1176      -2.1782500       2.1527500      0.57725000       338.71600     -0.97957789    -0.011215785
       1609.0000       285.75000       101650.64       8365.1176      -3.9090000       1.0895000     -0.44050000       338.73300      -4.3522661    -0.062299028
       1612.0000       286.15000       101650.64       8589.1796      -5.6947500       2.2335000     -0.25025000       338.79800      -1.4617987    -0.018203738
       1616.0000       285.75000       101650.64       8379.7114      -5.0290000       1.6142500      0.82550000       338.58900      -2.1793352    -0.031461755
       1619.0000       285.75000       101631.64       8381.2910      -2.5075000      0.81100000    -0.021250000       338.76300      -2.6188120    -0.043540691
       1622.0000       285.85000       101631.64       8436.9221      -2.9375000       2.5480000      0.30175000       338.69400     -0.57489202   -0.0095598884
       1626.0000       285.75000       101631.64       8381.2910      -5.3102500       2.7457500     -0.58325000       338.58300      -2.1797076    -0.033070733
       1629.0000       285.75000       101631.64       8395.8880      -2.0170000       1.3020000      0.28250000       338.84300     -0.64003303    -0.010112273
       1632.0000       285.75000       101631.64       8366.6944      -2.4817500       1.4767500    -0.060000000       338.49100      -1.4608177    -0.018917900
       1636.0000       285.75000       101650.64       8365.1176      -1.8330000       2.0005000      0.10900000       338.82400      -2.4164623    -0.031546294
       1639.0000       285.75000       101612.54       8339.0827      -3.2785000       1.5180000     -0.29400000       338.53600      -1.2214490    -0.018121007
       1642.0000       285.75000       101631.64       8337.5025      -2.2422500      0.79050000      0.11275000       338.76600      -2.7391070    -0.036507311
       1646.0000       285.75000       101650.64       8350.5242      -2.4077500       1.2817500      0.14250000       338.66600     -0.41131547   -0.0054545459
       1649.0000       285.75000       101650.64       8365.1176      -2.8600000       1.9817500    0.0060000000       338.63400      -1.1090086    -0.016833556
       1652.0000       286.15000       101650.64       8589.1796      -2.4077500       1.8375000     -0.21650000       338.72800      0.40272759    0.0068853949
       1656.0000       285.75000       101650.64       8365.1176      -1.2025000       2.0185000     -0.32650000       338.58000      -2.0551219    -0.025700078
       1659.0000       285.85000       101650.64       8420.6405      -2.2030000       1.1445000      0.31000000       338.82600      -1.3791243    -0.020641242
       1662.0000       285.75000       101650.64       8365.1176      -2.5412500       1.2407500      0.72475000       338.56200     -0.16800370   -0.0025256404
       1666.0000       285.75000       101650.64       8379.7114      -2.8847500       2.1347500     -0.43300000       338.70900     -0.18935514   -0.0035212064
       1669.0000       285.65000       101631.64       8325.9861      -2.8642500       2.4677500    -0.097750010       338.60400      -1.4311746    -0.017964365
       1672.0000       285.75000       101650.64       8379.7114      -3.2792500       1.8327500      -1.0085000       338.52000      -2.3687175    -0.034557863
       1676.0000       285.75000       101650.64       8379.7114      -1.1017500       1.7425000     -0.23425000       338.75000     -0.83450586    -0.015290628
       1679.0000       285.75000       101650.64       8379.7114     -0.94750010      0.68300000      0.70650010       338.83800      -2.4138601    -0.042027061
       1682.0000       285.75000       101612.54       8368.2801      -3.0660000       1.7702500      0.69750010       338.63600      0.21929351    0.0031105127
       1686.0000       285.75000       101650.64       8365.1176      -3.3600000       2.2860000     -0.28475000       338.67000      -2.9294903    -0.042541929
       1689.0000       285.65000       101631.64       8296.9876      -3.6667500       1.7757500     -0.33425000       338.61900      -1.5948078    -0.020584954
       1692.0000       285.65000       101612.54       8313.0618      -1.2902500       1.4225000      0.16900000       338.73400      -1.1306666    -0.015879602
       1696.0000       285.75000       101631.64       8366.6944      -1.4212500       1.0462500      0.46950000       338.74100     -0.86011085    -0.014421554
       1699.0000       285.85000       101650.64       8420.6405      -3.0187500       1.2217500     0.015500000       338.70800     -0.69361167   -0.0099894636
       1702.0000       285.65000       101631.64       8311.4866      -2.5735000       1.9355000      0.10475000       338.64100      -1.1047093    -0.016958023
       1706.0000       285.65000       101650.64       8309.9203      -2.1897500       1.7825000     -0.39825000       338.83100      -1.7811117    -0.027142948
       1709.0000       285.75000       101631.64       8366.6944      -3.0335000       2.2500000    -0.040750000       338.68100      -1.5056226    -0.021803743
       1712.0000       285.85000       101631.64       8422.2279      -1.5330000       1.5337500      0.35025000       338.87800      -1.8049586    -0.027483275
       1716.0000       285.75000       101631.64       8366.6944      -2.4992500       1.3567500      0.19275000       338.73600      -1.5308046    -0.023272264
       1719.0000       285.75000       101612.54       8353.6812      -2.6082500       1.8512500      0.33900000       338.69000      -1.2154246    -0.018769380
       1722.0000       285.75000       101612.54       8368.2801      -2.5882500       1.5560000     -0.21500000       338.65800     -0.32347592   -0.0057049364
       1726.0000       285.75000       101631.64       8366.6944      -1.7667500       2.2567500      0.25725000       338.81500      -2.5319195    -0.042157013
       1729.0000       285.75000       101631.64       8366.6944      -2.0375000       1.8895000      0.19950000       338.75000      -2.6280282    -0.037458778
       1732.0000       285.65000       101631.64       8311.4866      -4.0785000       2.4250000      0.29200000       338.77900      -2.2333780    -0.028568538
       1736.0000       285.75000       101650.64       8379.7114      -1.8267500       2.1192500      0.27050000       338.70300       1.1573527     0.016430670
       1739.0000       285.65000       101631.64       8325.9861      -2.0510000       2.3037500     0.085000000       338.80800      -2.5984029    -0.035301754
       1742.0000       285.65000       101612.54       8342.0666      -1.7525000       2.0750000      0.34250000       338.75900      -2.2935595    -0.029625237
       1745.0000       285.65000       101612.54       8356.5697      -1.2425000       1.5372500      0.60850000       338.86100      -1.6071933    -0.017900741
       1749.0000       285.75000       101631.64       8410.4854      -1.8322500       1.9657500     -0.67925010       338.77900      -3.2970624    -0.038149459
       1752.0000       285.75000       101612.54       8441.2811      -1.0525000       1.4362500      0.35625000       338.91800      -3.5034367    -0.042109226
       1755.0000       285.65000       101612.54       8400.0814      -1.5342500      0.69700000      0.13700000       338.92600      -1.4982711    -0.021197709
       1759.0000       285.95000       101612.54       8583.2724      -1.7520000      0.75525000      0.43850000       338.84200      -1.8356596    -0.024996024
       1762.0000       285.75000       101631.64       8468.8793      -2.3415000      0.50125000      0.00000000       338.75800      -2.0251205    -0.025953693
       1765.0000       285.65000       101631.64       8441.9968      -2.5722500       1.2475000     -0.18625000       338.88800      -1.8005185    -0.021756787
       1769.0000       285.65000       101631.64       8441.9968      -3.0492500       1.6082500     -0.44725000       338.66100      -2.0470434    -0.025836770
       1772.0000       285.65000       101631.64       8441.9968      -2.2640000       1.0567500      0.66600000       338.75400      -1.6456476    -0.022349947
       1775.0000       285.75000       101612.54       8528.8963      -3.1882500       1.7135000     -0.26575000       338.52700      -3.2059098    -0.040175857
       1779.0000       285.65000       101612.54       8487.1161      -2.3160000       1.7857500     -0.17025000       338.56500    -0.072889275   -0.0012093097
       1782.0000       285.65000       101631.64       8500.0121      -2.3260000      0.41325000      0.57250010       338.71800     -0.44740893   -0.0054403118
       1785.0000       285.65000       101612.54       8516.1310      -4.2820000       1.3597500     -0.83400010       338.73000      -1.6772562    -0.028144218
       1789.0000       285.65000       101631.64       8514.5170      -2.9172500       1.1062500     -0.28850000       338.76100      -1.6867549    -0.022170157
       1792.0000       285.75000       101650.64       8569.4692      -3.1295000       1.9560000     0.032750000       338.64300      -1.1915560    -0.015509089
       1795.0000       285.65000       101631.64       8514.5170      -1.9972500       2.0107500      0.55000000       338.82400      -3.1296444    -0.038193763
       1799.0000       285.65000       101612.54       8487.1161      -2.2742500       1.4800000       1.1655000       338.86200      -2.0184038    -0.035910448
       1802.0000       285.65000       101631.64       8456.5000      -4.7665000      0.57825010     -0.14825000       338.55200      -2.1117961    -0.026421539
       1805.0000       285.65000       101631.64       8471.0036      -3.1930000       2.3110000      0.40500000       338.54100      -1.0444607    -0.014504989
       1809.0000       285.55000       101650.64       8413.4717      -3.9980000       1.9907500     -0.23225000       338.51800      -1.1180000    -0.022524142
       1812.0000       285.65000       101631.64       8471.0036      -1.8732500     -0.37250000      0.22825000       338.73700     0.089559431    0.0019189083
       1815.0000       285.65000       101612.54       8472.6092      -1.5247500      0.83925000      0.38000000       338.79700      -1.6889732    -0.029570757
       1819.0000       285.65000       101631.64       8456.5000      -1.7375000      0.47250000      0.84950010       338.84100      -1.7940426    -0.023346389
       1822.0000       285.65000       101631.64       8441.9968      -3.7265000     0.050000000      0.24375000       338.65400      -3.2303944    -0.060757968
       1825.0000       285.65000       101631.64       8441.9968      -3.4155000       1.4860000      0.84425000       338.68400      -3.2507007    -0.054536371
       1829.0000       285.55000       101631.64       8371.8378      -3.4715000      0.40275000     -0.18350000       338.70700      -2.4849906    -0.039082938
       1832.0000       285.65000       101631.64       8412.9916      -3.5877500      0.45925000       1.3495000       338.65800      -3.1613835    -0.048185953
       1835.0000       285.65000       101650.64       8411.4060      -2.9715000      0.84350000      0.27000000       338.61500      -2.5130364    -0.047600699
       1839.0000       285.65000       101650.64       8411.4060      -3.3025000       1.5907500     -0.13025000       338.65400      -1.5297226    -0.022012674
       1842.0000       285.65000       101631.64       8427.4940      -2.9500000       1.7112500      0.16900000       338.75800     -0.24066419   -0.0028361396
       1845.0000       285.65000       101650.64       8440.4056      -2.9232500       1.6175000     -0.19250000       338.81000      -1.4428680    -0.018475160
       1849.0000       285.65000       101631.64       8441.9968      -2.6197500       1.9417500     -0.37150000       338.68600      -2.1741333    -0.028305232
       1852.0000       285.65000       101612.54       8472.6092      -2.0375000       1.8145000     -0.17350000       338.83200      -2.2432303    -0.040514209
       1855.0000       285.65000       101631.64       8471.0036      -2.9535000       2.0002500     -0.88775000       338.64800      -1.3404175    -0.017632572
       1859.0000       285.65000       101631.64       8485.5077      -1.1112500       2.1652500      0.12100000       338.66500      -2.2903548    -0.031181503
       1862.0000       285.65000       101650.64       8483.9083      -2.4162500      0.52850000     -0.46650000       338.99300      -2.9546578    -0.036666885
       1865.0000       285.65000       101612.54       8487.1161      -2.5652500       2.4360000      0.23475000       338.63300      -1.2995738    -0.019486713
       1869.0000       285.65000       101631.64       8485.5077      -3.1742500       1.8317500     0.026250000       338.60700      -2.2948920    -0.025862012
       1872.0000       285.65000       101650.64       8469.4070      -2.6127500       2.4895000      0.73825000       338.95400     -0.26143098   -0.0032381158
       1875.0000       285.65000       101650.64       8483.9083      -2.2477500       1.2540000      0.13475000       338.87600      -2.4514974    -0.030328664
       1879.0000       285.65000       101631.64       8514.5170      -2.1740000       1.8757500      0.23425000       338.80400      -2.2014083    -0.031140436
       1882.0000       285.65000       101650.64       8541.9176      -1.3765000       1.2277500      0.46775000       338.81800      -1.4801525    -0.020610778
       1885.0000       285.65000       101631.64       8543.5280      -1.8875000       1.7482500      0.13025000       338.62100      0.39080010    0.0049994826
       1888.0000       285.65000       101631.64       8514.5170      -2.4785000       2.3502500     -0.49975000       338.58700     -0.92951763    -0.014415765
       1892.0000       285.65000       101631.64       8514.5170      -1.3750000       1.0750000    -0.023000000       338.62800     -0.94139534    -0.020426703
       1895.0000       285.65000       101631.64       8543.5280     -0.91025010       1.1445000      0.37600000       338.80600     -0.63818908   -0.0083301639
       1898.0000       285.65000       101631.64       8514.5170      -1.5985000       1.7775000    -0.067250010       338.78300      -1.5240876    -0.022573790
       1902.0000       285.75000       101650.64       8540.2710      -1.2227500       1.8437500     -0.21600000       338.79400      -1.0628746    -0.012638655
       1905.0000       285.75000       101631.64       8512.6791      -2.1915000      0.37125000      0.68900000       338.78300      -1.5830587    -0.023527618
       1908.0000       285.65000       101612.54       8443.5969      -3.1845000       1.7585000     -0.71125000       338.66300     -0.66736802    -0.011745629
       1912.0000       285.65000       101650.64       8411.4060      -4.2890000       2.3780000     -0.40525000       338.52400      -1.1429178    -0.012533305
       1915.0000       285.65000       101650.64       8382.4080      -2.0262500       1.2860000     0.090250010       338.70900      -2.4009213    -0.028934322
       1918.0000       285.65000       101650.64       8382.4080     -0.76525000       1.7387500    -0.069000010       338.76600      -2.1048280    -0.024421690
       1922.0000       285.65000       101612.54       8385.5771      -3.1167500       1.7417500      -1.0202500       338.64900     -0.59098772   -0.0094008632
       1925.0000       285.55000       101631.64       8299.8128      -4.6220000       2.9807500      0.68200000       338.63200     -0.62305165   -0.0078083730
       1928.0000       285.65000       101631.64       8340.4859      -3.4357500       1.2220000      0.45700000       338.52300      -1.7370093    -0.024100414
       1932.0000       285.65000       101631.64       8340.4859      -3.4342500       2.5205000     -0.27725000       338.60400     -0.97108349    -0.016850536
       1935.0000       285.95000       101612.54       8509.2868      -2.1065000       1.2692500      0.12625000       338.60800      -1.0091567    -0.012681106
       1938.0000       285.65000       101631.64       8340.4859      -2.3207500       1.7935000     -0.16075000       338.42400      -1.6512446    -0.026660856
       1942.0000       285.65000       101631.64       8325.9861     -0.45200000       2.2885000     0.091250000       338.45000      -1.1606644    -0.014701794
       1945.0000       285.65000       101631.64       8325.9861      -2.7220000       2.2625000     -0.81750010       338.53400      -2.5932999    -0.032340808
       1948.0000       285.65000       101650.64       8309.9203      -1.7465000       1.1047500     -0.10775000       338.61000      -1.4178016    -0.026298777
       1952.0000       285.65000       101650.64       8309.9203     -0.79075000       1.9712500    -0.095250000       338.68300     -0.83200185    -0.012526205
       1955.0000       285.65000       101650.64       8309.9203     -0.52075000       1.2710000      0.31625000       338.81100      -2.4731177    -0.036499650
       1958.0000       285.65000       101612.54       8313.0618     -0.83100000       1.3802500     -0.20925000       338.66000      -2.0456366    -0.028952582
       1962.0000       285.65000       101631.64       8311.4866      -1.3955000      0.96100000      0.54300000       338.78200      -1.5028672    -0.016911350
       1965.0000       285.65000       101631.64       8311.4866      -1.7695000       1.1805000    0.0025000000       338.72200      -1.7674146    -0.022600696
       1968.0000       285.65000       101650.64       8309.9203      -1.3035000       1.7810000     -0.35925000       338.66800      -3.0168486    -0.039228911
       1972.0000       285.65000       101631.64       8325.9861      -1.2877500       1.1075000     0.036250000       338.80900      -2.9775577    -0.046496979
       1975.0000       285.65000       101612.54       8313.0618      -1.4245000       1.8075000      0.16400000       338.76900      -2.2786001    -0.044431555
       1978.0000       285.65000       101631.64       8325.9861      -1.2495000       1.0462500      0.53125000       338.82000      -2.2967282    -0.027352472
       1982.0000       285.65000       101631.64       8340.4859      -1.0542500       1.4145000     0.065750000       338.91600      -2.7602780    -0.029572366
       1985.0000       285.65000       101650.64       8353.4117     -0.43600000      0.95525000    -0.017500000       338.46600      -2.1576947    -0.028372675
       1988.0000       285.65000       101631.64       8369.4869     -0.57300000      0.20100000      0.28950000       338.58500      -1.8253150    -0.024791003
       1992.0000       285.65000       101650.64       8367.9096     -0.88725010       1.3315000     -0.37650000       338.81800      -2.4885169    -0.035905459
       1995.0000       285.65000       101612.54       8385.5771      -1.8607500       1.1367500     -0.24400000       338.70900      -2.7184792    -0.039586642
       1998.0000       285.65000       101612.54       8385.5771      -1.4715000      0.85075000      0.29275000       338.72100      -2.6611213    -0.034688403
       2002.0000       285.65000       101650.64       8382.4080      -2.0192500      0.96975000     -0.37925000       338.61000      -1.7855570    -0.022546693
       2005.0000       285.65000       101650.64       8396.9068      -2.9090000       2.1610000     -0.59725000       338.67000      -1.2187990    -0.017822255
       2008.0000       285.65000       101631.64       8383.9881      -3.2712500       1.9837500     -0.88500010       338.75000      0.37687680    0.0059086911
       2012.0000       285.65000       101631.64       8383.9881      -1.1720000       2.1557500     -0.17150000       338.68200    0.0089634271   0.00011059940
       2015.0000       285.65000       101631.64       8383.9881     -0.83950010       2.1687500     0.050500000       338.84700      -2.6479536    -0.049893986
       2018.0000       285.55000       101650.64       8327.0520      -1.9775000       1.5655000     -0.15950000       338.60400      -1.9930576    -0.038723024
       2021.0000       285.55000       101612.54       8330.2000      -1.8060000       3.5712500      0.34425000       338.67700      -3.8450220    -0.058598223
       2025.0000       285.55000       101631.64       8328.6216     -0.56425010       2.1830000     0.011500000       338.79100      -1.4948937    -0.021498038
       2028.0000       285.45000       101650.64       8272.0211      -2.1777500      0.99175010     -0.40725000       338.66700      -1.1979949    -0.015090955
       2031.0000       285.65000       101631.64       8398.4896      -2.5610000      0.33800000      0.27000000       338.48900      -2.0845923    -0.031133294
       2035.0000       285.65000       101650.64       8382.4080      -3.4610000       1.5680000      0.16700000       338.54800      -1.8699202    -0.024167583
       2038.0000       285.55000       101650.64       8327.0520      -3.7672500       2.4302500     -0.72175000       338.66100      -2.4781052    -0.035886582
